File: artifacts/EDA_prepared_data/preprocessed_data.csv
Compressive strength of cementfce(MPa),Tensile strength of cementfct(MPa),Curing age (day),Dmax of Crushed stone(mm),Stone powder content in Sand (%),Fineness modulus of sand ,W/B,Water to cement ratio mw/mc,Water(kg/m3),Sand ratio(%),"Compressive strengthfcu,t(MPa)","Splitting tensile strengthfst,t(MPa)"
46.8,8.0,3.0,31.5,5.0,3.34,0.56,0.56,180.0,44.0,32.5,1.18
46.8,8.0,7.0,31.5,13.0,2.77,0.56,0.56,180.0,44.0,34.7,1.42
46.8,8.0,28.0,31.5,9.0,3.27,0.56,0.56,180.0,44.0,41.3,3.75
46.8,8.0,56.0,31.5,5.0,3.34,0.56,0.56,180.0,44.0,43.8,3.73
46.8,8.0,84.0,31.5,13.0,2.77,0.56,0.56,180.0,44.0,48.0,4.48
46.8,8.0,178.0,31.5,9.0,3.27,0.56,0.56,180.0,44.0,51.9,4.22
46.8,8.0,298.0,31.5,5.0,3.34,0.56,0.56,180.0,44.0,51.2,4.36
46.8,8.0,358.0,31.5,13.0,2.77,0.56,0.56,180.0,44.0,55.1,4.32
46.8,8.0,7.0,31.5,9.0,3.27,0.45,0.45,180.0,36.0,42.3,3.02
46.8,8.0,28.0,31.5,5.0,3.34,0.45,0.45,180.0,36.0,54.2,3.46
46.8,8.0,35.0,31.5,13.0,2.77,0.45,0.45,180.0,36.0,52.6,3.43
46.8,8.0,56.0,31.5,9.0,3.27,0.45,0.45,180.0,36.0,54.3,3.81
46.8,8.0,84.0,31.5,5.0,3.34,0.45,0.45,180.0,36.0,56.5,4.32
46.8,8.0,98.0,31.5,13.0,2.77,0.45,0.45,180.0,36.0,57.2,4.52
46.8,8.0,148.0,31.5,9.0,3.27,0.45,0.45,180.0,36.0,64.1,4.27
46.8,8.0,208.0,31.5,5.0,3.34,0.45,0.45,180.0,36.0,63.6,4.32
46.8,8.0,238.0,31.5,13.0,2.77,0.45,0.45,180.0,36.0,68.7,4.24
46.8,8.0,298.0,31.5,9.0,3.27,0.45,0.45,180.0,36.0,70.8,4.04
46.8,8.0,358.0,31.5,5.0,3.34,0.45,0.45,180.0,36.0,67.8,4.45
46.8,8.0,388.0,31.5,13.0,2.77,0.45,0.45,180.0,36.0,72.4,4.41
46.8,8.0,7.0,31.5,9.0,3.27,0.4,0.4,185.0,34.0,49.7,3.39
46.8,8.0,28.0,31.5,5.0,3.34,0.4,0.4,185.0,34.0,52.9,3.67
46.8,8.0,42.0,31.5,13.0,2.77,0.4,0.4,185.0,34.0,60.6,3.79
46.8,8.0,84.0,31.5,9.0,3.27,0.4,0.4,185.0,34.0,64.6,4.42
46.8,8.0,178.0,31.5,5.0,3.34,0.4,0.4,185.0,34.0,68.0,4.68
46.8,8.0,238.0,31.5,13.0,2.77,0.4,0.4,185.0,34.0,68.0,4.05
46.8,8.0,358.0,31.5,9.0,3.27,0.4,0.4,185.0,34.0,78.2,4.24
38.2,6.9,28.0,25.0,10.0,3.19,0.47,0.47,190.0,36.0,45.9,3.57
47.7,8.7,28.0,25.0,7.0,3.19,0.32,0.32,170.0,30.0,74.7,4.34
47.7,8.7,28.0,25.0,7.0,3.19,0.44,0.44,180.0,32.0,59.6,3.91
46.3,8.4,28.0,25.0,9.0,3.19,0.56,0.56,170.0,42.0,43.8,3.31
46.3,8.4,28.0,25.0,5.0,3.19,0.4,0.4,190.0,32.0,55.6,4.19
46.3,8.4,28.0,25.0,13.0,3.19,0.32,0.32,175.0,28.0,66.7,5.45
47.7,8.7,28.0,26.5,7.0,3.23,0.44,0.44,180.0,32.0,50.3,3.88
48.2,8.4,28.0,26.5,5.0,3.23,0.55,0.55,160.0,38.0,43.4,2.96
48.2,8.4,28.0,26.5,13.0,3.23,0.44,0.44,170.0,34.0,53.5,3.18
48.2,8.4,28.0,26.5,9.0,3.23,0.31,0.31,170.0,30.0,68.3,3.99
48.3,7.4,28.0,25.0,7.5,2.9,0.51,1.01,222.0,45.0,57.0,2.87
52.7,9.0,28.0,31.5,5.8,3.1,0.42,0.42,185.0,36.0,38.3,3.04
50.14,8.442,28.0,26.6,9.44,2.976,0.45,0.45,180.0,39.0,47.4,4.98
50.52,8.46,28.0,39.3,10.8,2.76,0.522,0.522,178.0,38.2,37.8,1.84
38.2,6.9,28.0,20.0,13.0,3.55,0.59,0.59,203.0,40.0,43.1,2.65
63.4,10.2,28.0,16.0,5.0,3.5,0.25,0.48,150.0,37.0,94.6,6.4
55.6,8.91,7.0,20.0,19.4,2.8,0.28,0.4,180.0,45.0,28.3,2.24
62.4,8.4,28.0,40.0,7.1,2.664,0.45,0.56,109.0,36.0,24.8,1.98
62.4,8.4,28.0,40.0,17.8,2.782,0.45,0.56,122.0,36.0,33.2,2.68
53.88,8.4,28.0,40.0,11.2,2.73,0.45,0.56,133.0,42.0,29.0,2.37
47.96,8.44,28.0,40.0,22.1,2.782,0.45,0.56,146.0,42.0,30.9,2.41
43.7,7.5,7.0,40.0,18.0,3.0,0.36,0.48,135.0,33.0,26.1,2.29
46.4,8.04,28.0,40.0,18.0,2.87,0.36,0.48,135.0,33.0,41.1,3.07
43.7,7.5,90.0,40.0,18.0,2.808,0.36,0.48,135.0,33.0,53.2,4.12
43.7,7.5,180.0,40.0,18.0,2.94,0.36,0.48,135.0,33.0,58.8,4.5
52.5,8.8,3.0,20.0,5.4,3.11,0.34,0.34,158.0,42.0,48.2,3.6
52.7,9.0,28.0,31.5,6.6,2.94,0.42,0.42,185.0,36.0,35.6,3.04
52.7,9.0,3.0,31.5,6.6,2.94,0.42,0.42,185.0,32.0,23.6,1.69
52.7,9.0,28.0,31.5,6.6,2.94,0.46,0.46,185.0,36.0,37.2,3.24
43.7,7.5,90.0,25.0,0.4,2.3,0.3,0.425,153.0,41.0,80.8,4.82
43.7,7.5,7.0,25.0,2.3,3.1,0.3,0.428,152.0,38.0,56.9,3.58
43.7,7.5,180.0,25.0,2.3,3.1,0.3,0.428,152.0,38.0,83.5,5.05
43.7,7.5,60.0,25.0,3.74,3.1,0.3,0.428,152.0,38.0,82.1,4.78
43.7,7.5,3.0,25.0,6.3,3.1,0.3,0.428,152.0,38.0,50.7,3.42
43.7,7.5,120.0,25.0,6.3,3.1,0.3,0.428,152.0,38.0,88.5,5.24
43.7,7.5,28.0,25.0,2.82,3.1,0.3,0.3,152.0,38.0,78.8,4.61
43.7,7.5,365.0,25.0,6.2,3.1,0.3,0.3,152.0,38.0,88.1,5.23
43.7,7.5,90.0,25.0,3.12,3.1,0.32,0.457,152.0,39.0,82.5,4.96
55.8,10.8,28.0,19.6,4.2,2.8,0.24,0.3,135.0,34.0,93.5,6.7
55.8,10.8,7.0,25.0,4.2,2.8,0.24,0.3,135.0,34.0,82.4,5.8
55.2,8.9,28.0,25.0,0.8,2.85,0.33,0.47,168.0,38.8,67.4,4.38
55.2,8.9,28.0,25.0,0.8,2.85,0.33,0.47,155.0,37.0,69.3,4.5
55.2,8.9,28.0,25.0,0.8,2.85,0.33,0.47,145.0,35.0,70.8,4.55
55.2,8.9,28.0,25.0,0.8,2.85,0.35,0.47,154.0,38.0,66.5,3.85
55.2,8.9,28.0,25.0,0.8,2.85,0.3,0.43,120.0,38.0,78.0,4.35
55.2,8.9,28.0,25.0,0.8,2.85,0.3,0.43,248.0,38.0,74.0,4.13
50.42,8.72,28.0,20.0,3.72,3.0,0.26,0.4,175.0,37.0,89.24,4.6
52.6,9.4,7.0,25.0,5.0,3.1,0.55,0.55,180.0,42.0,25.9,1.34
52.6,9.4,28.0,25.0,10.0,3.1,0.55,0.55,180.0,42.0,37.9,2.15
47.22,8.02,3.0,20.0,3.0,3.3,0.3,0.38,166.0,48.0,48.9,3.35
50.06,8.32,28.0,20.0,7.0,3.3,0.3,0.38,166.0,48.0,80.1,6.01
47.42,8.64,28.0,25.3,16.8,3.198,0.44,0.44,184.0,30.0,54.0,3.96
47.66,8.14,28.0,80.0,16.8,2.8,0.46,0.46,160.0,32.0,33.3,2.42
47.7,7.9,28.0,80.0,18.0,2.8,0.53,0.53,130.0,29.0,24.9,1.84
47.7,7.9,28.0,80.0,20.0,2.8,0.58,0.58,134.0,29.0,21.3,1.7
47.328,8.96,28.0,20.0,15.0,3.1,0.5,0.5,164.4,36.8,31.8,2.91
50.32,8.02,28.0,64.0,25.9,3.3,0.5,0.5,156.4,32.2,26.5,2.36
41.64,7.74,28.0,40.0,25.0,2.79,0.5,0.5,191.0,35.4,29.8,2.36
39.22,7.48,28.0,40.0,25.0,2.74,0.6,0.6,187.0,37.4,23.1,1.99
47.7,7.9,28.0,80.0,25.0,2.83,0.5,0.5,154.0,30.8,32.9,2.49
47.7,7.9,28.0,80.0,25.0,2.88,0.7,0.7,154.0,31.4,22.5,1.7
44.8,7.9,7.0,31.5,15.0,2.6,0.5,0.5,180.0,42.0,25.4,1.72
47.6,8.5,7.0,40.0,12.0,3.2,0.55,0.55,175.0,41.0,30.1,1.7
51.7,9.1,28.0,25.0,6.0,3.2,0.38,0.38,179.0,35.0,61.3,4.25
60.8,8.5,28.0,80.0,15.26,2.67,0.38,0.38,114.0,26.0,39.8,2.71
47.7,7.9,28.0,80.0,16.94,2.67,0.62,0.77,120.0,30.0,18.2,1.8
56.06,8.44,28.0,80.0,21.0,2.54,0.4,0.5,110.0,24.0,39.6,2.74
46.8,8.0,7.0,31.5,20.0,2.87,0.4,0.4,190.0,30.0,38.4,2.4
50.1,8.622,7.0,27.9,20.0,2.808,0.7,0.7,190.0,34.0,16.3,1.08
50.68,8.604,7.0,25.6,20.0,2.78,1.0,1.0,190.0,42.0,10.5,0.8
43.16,7.72,28.0,26.3,20.0,3.106,0.4,0.4,190.0,30.0,50.5,3.23
37.9,7.28,28.0,32.0,20.0,3.02,0.7,0.7,190.0,34.0,27.7,1.62
39.16,7.46,28.0,36.0,20.0,2.92,1.0,1.0,190.0,42.0,14.2,1.23
52.9,8.4,7.0,80.0,15.0,2.8,0.5,0.66,110.0,30.0,19.2,1.53
52.9,8.4,28.0,80.0,15.0,2.8,0.5,0.66,110.0,30.0,28.5,2.91
52.9,8.4,90.0,80.0,15.0,2.8,0.5,0.66,110.0,30.0,39.4,3.26
62.4,8.4,7.0,120.0,12.1,2.56,0.55,0.92,83.5,26.5,8.1,0.56
52.9,8.4,7.0,120.0,12.1,2.56,0.45,0.64,98.0,29.5,16.7,1.21
62.4,8.4,28.0,120.0,12.1,2.56,0.55,0.92,83.5,27.0,16.4,1.39
52.9,8.4,28.0,80.0,12.1,2.56,0.45,0.64,98.0,30.0,31.1,2.08
52.9,8.4,90.0,120.0,12.1,2.56,0.45,0.64,98.0,29.5,36.7,2.45
62.4,8.4,7.0,72.0,11.2,2.44,0.45,0.64,87.0,26.0,12.9,1.03
62.4,8.4,7.0,40.0,13.0,2.68,0.5,1.11,88.0,36.0,9.3,0.61
62.4,8.4,28.0,52.0,11.2,2.44,0.45,0.64,87.0,26.0,22.3,1.56
62.4,8.4,28.0,40.0,13.0,2.68,0.5,1.11,88.0,36.0,19.9,1.62
62.4,8.4,90.0,40.0,13.0,2.68,0.5,1.0,88.0,36.0,28.0,2.12
52.9,8.4,28.0,80.0,10.8,2.42,0.45,0.64,98.0,30.0,28.8,1.71
54.8,8.4,90.0,80.0,12.4,2.57,0.45,0.64,95.0,31.0,44.0,3.0
62.4,8.4,7.0,40.0,11.9,2.86,0.5,1.11,88.0,30.6,9.3,0.61
62.4,8.4,7.0,40.0,6.1,2.92,0.5,1.0,102.0,36.0,9.2,0.72
62.4,8.4,7.0,60.0,11.9,2.86,0.5,1.25,75.0,28.8,8.3,0.57
62.4,8.4,7.0,80.0,11.9,2.86,0.5,1.11,71.0,27.0,9.0,0.64
62.4,8.4,7.0,80.0,6.1,2.92,0.5,1.11,82.0,27.6,6.8,0.55
62.4,8.4,28.0,40.0,11.9,2.86,0.5,1.11,88.0,32.2,19.9,1.62
62.4,8.4,28.0,40.0,6.1,2.92,0.5,1.0,102.0,36.0,20.0,1.69
62.4,8.4,28.0,60.0,11.9,2.86,0.5,1.25,75.0,28.8,16.9,1.09
62.4,8.4,28.0,80.0,11.9,2.86,0.5,1.11,71.0,27.5,16.2,1.46
62.4,8.4,28.0,80.0,6.1,2.92,0.5,1.11,82.0,27.5,14.0,1.06
62.4,8.4,90.0,40.0,11.9,2.86,0.5,1.11,88.0,36.0,25.5,2.1
62.4,8.4,90.0,40.0,6.1,2.92,0.5,1.0,102.0,36.0,27.8,2.18
62.4,8.4,90.0,60.0,11.9,2.86,0.5,1.25,75.0,36.0,23.5,1.93
62.4,8.4,90.0,80.0,11.9,2.86,0.5,1.11,71.0,30.2,21.5,1.9
62.4,8.4,90.0,80.0,6.1,2.92,0.5,1.11,82.0,30.2,27.7,2.1
52.9,8.4,7.0,80.0,12.0,2.68,0.5,0.67,114.0,30.0,16.4,1.59
52.9,8.4,7.0,80.0,9.0,2.68,0.5,0.668,111.0,30.0,16.6,1.54
51.86,8.3,28.0,80.0,15.0,2.68,0.5,0.67,115.0,30.0,27.3,2.75
54.48,8.42,28.0,80.0,6.0,2.68,0.5,0.601,112.0,30.0,30.2,2.9
52.9,8.4,90.0,80.0,18.0,2.68,0.5,0.67,117.0,30.0,37.1,3.21
52.9,8.4,7.0,80.0,15.0,2.8,0.5,0.67,104.0,30.0,20.4,1.61
52.9,8.4,28.0,80.0,15.0,2.8,0.5,0.67,104.0,30.0,29.7,3.04
52.9,8.4,90.0,80.0,15.0,2.8,0.5,0.67,104.0,30.0,40.9,3.43
39.42,8.904,7.0,12.0,19.2,2.88,0.37,0.65,178.75,53.0,26.56,1.92
39.42,8.182,90.0,12.0,19.2,2.99,0.34,0.55,178.75,53.0,49.7,3.68
48.07,9.062,28.0,12.0,19.2,3.14,0.31,0.45,180.0,53.0,63.72,3.86
39.42,8.924,7.0,12.0,19.2,2.914,0.36,0.55,178.75,54.0,33.42,2.31
48.07,8.182,90.0,12.0,19.2,2.876,0.36,0.55,178.75,54.0,60.65,4.59
48.07,8.182,90.0,12.0,19.2,2.876,0.32,0.45,180.0,54.0,73.7,4.76