File: artifacts/initial_prepared_data/Updated_init_data.csv
,Compressive strength of cementfce(MPa),Tensile strength of cementfct(MPa),Curing age (day),Dmax of Crushed stone(mm),Stone powder content in Sand (%),Fineness modulus of sand ,W/B,Water to cement ratio mw/mc,Water(kg/m3),Sand ratio(%),Slump(mm),"Compressive strengthfcu,t(MPa)","Splitting tensile strengthfst,t(MPa)"
0,46.8,8.0,3,31.5,5.0,3.34,0.56,0.56,180.0,44.0,50.0,32.5,1.18
5,46.8,8.0,7,31.5,13.0,2.77,0.56,0.56,180.0,44.0,50.0,34.7,1.42
10,46.8,8.0,28,31.5,9.0,3.27,0.56,0.56,180.0,44.0,70.0,41.3,3.75
15,46.8,8.0,56,31.5,5.0,3.34,0.56,0.56,180.0,44.0,50.0,43.8,3.73
20,46.8,8.0,84,31.5,13.0,2.77,0.56,0.56,180.0,44.0,50.0,48.0,4.48
25,46.8,8.0,178,31.5,9.0,3.27,0.56,0.56,180.0,44.0,70.0,51.9,4.22
30,46.8,8.0,298,31.5,5.0,3.34,0.56,0.56,180.0,44.0,50.0,51.2,4.36
35,46.8,8.0,358,31.5,13.0,2.77,0.56,0.56,180.0,44.0,50.0,55.1,4.32
40,46.8,8.0,7,31.5,9.0,3.27,0.45,0.45,180.0,36.0,160.0,42.3,3.02
45,46.8,8.0,28,31.5,5.0,3.34,0.45,0.45,180.0,36.0,110.0,54.2,3.46
50,46.8,8.0,35,31.5,13.0,2.77,0.45,0.45,180.0,36.0,45.0,52.6,3.43
55,46.8,8.0,56,31.5,9.0,3.27,0.45,0.45,180.0,36.0,160.0,54.3,3.81
60,46.8,8.0,84,31.5,5.0,3.34,0.45,0.45,180.0,36.0,110.0,56.5,4.32
65,46.8,8.0,98,31.5,13.0,2.77,0.45,0.45,180.0,36.0,45.0,57.2,4.52
70,46.8,8.0,148,31.5,9.0,3.27,0.45,0.45,180.0,36.0,160.0,64.1,4.27
75,46.8,8.0,208,31.5,5.0,3.34,0.45,0.45,180.0,36.0,110.0,63.6,4.32
80,46.8,8.0,238,31.5,13.0,2.77,0.45,0.45,180.0,36.0,45.0,68.7,4.24
85,46.8,8.0,298,31.5,9.0,3.27,0.45,0.45,180.0,36.0,160.0,70.8,4.04
90,46.8,8.0,358,31.5,5.0,3.34,0.45,0.45,180.0,36.0,110.0,67.8,4.45
95,46.8,8.0,388,31.5,13.0,2.77,0.45,0.45,180.0,36.0,45.0,72.4,4.41
100,46.8,8.0,7,31.5,9.0,3.27,0.4,0.4,185.0,34.0,60.0,49.7,3.39
105,46.8,8.0,28,31.5,5.0,3.34,0.4,0.4,185.0,34.0,30.0,52.9,3.67
110,46.8,8.0,42,31.5,13.0,2.77,0.4,0.4,185.0,34.0,50.0,60.6,3.79
115,46.8,8.0,84,31.5,9.0,3.27,0.4,0.4,185.0,34.0,60.0,64.6,4.42
120,46.8,8.0,178,31.5,5.0,3.34,0.4,0.4,185.0,34.0,30.0,68.0,4.68
125,46.8,8.0,238,31.5,13.0,2.77,0.4,0.4,185.0,34.0,50.0,68.0,4.05
130,46.8,8.0,358,31.5,9.0,3.27,0.4,0.4,185.0,34.0,60.0,78.2,4.24
135,38.2,6.9,28,25.0,10.0,3.19,0.47,0.47,190.0,36.0,11.0,45.9,3.57
140,47.7,8.7,28,25.0,7.0,3.19,0.32,0.32,170.0,30.0,13.0,74.7,4.34
145,47.7,8.7,28,25.0,7.0,3.19,0.44,0.44,180.0,32.0,108.0,59.6,3.91
150,46.3,8.4,28,25.0,9.0,3.19,0.56,0.56,170.0,42.0,80.0,43.8,3.31
155,46.3,8.4,28,25.0,5.0,3.19,0.4,0.4,190.0,32.0,150.0,55.6,4.19
160,46.3,8.4,28,25.0,13.0,3.19,0.32,0.32,175.0,28.0,100.0,66.7,5.45
165,47.7,8.7,28,26.5,7.0,3.23,0.44,0.44,180.0,32.0,83.0,50.3,3.88
170,48.2,8.4,28,26.5,5.0,3.23,0.55,0.55,160.0,38.0,115.0,43.4,2.96
175,48.2,8.4,28,26.5,13.0,3.23,0.44,0.44,170.0,34.0,90.0,53.5,3.18
180,48.2,8.4,28,26.5,9.0,3.23,0.31,0.31,170.0,30.0,20.0,68.3,3.99
185,48.3,7.4,28,25.0,7.5,2.9,0.51,1.01,222.0,45.0,,57.0,2.87
190,,,28,31.5,5.8,3.1,0.42,0.42,185.0,36.0,36.0,38.3,3.04
195,,,28,,,,0.45,0.45,180.0,39.0,205.0,47.4,4.98
200,,,28,,10.8,2.76,,,,,,37.8,1.84
205,,,28,20.0,13.0,3.55,0.59,0.59,203.0,40.0,70.0,43.1,2.65
210,63.4,10.2,28,16.0,5.0,3.5,0.25,0.48,150.0,37.0,225.0,94.6,6.4
215,55.6,8.91,7,20.0,19.4,2.8,0.28,0.4,180.0,45.0,,28.3,2.24
220,,,28,40.0,7.1,,0.45,0.56,109.0,36.0,85.0,24.8,1.98
225,,,28,40.0,17.8,,0.45,0.56,122.0,36.0,88.0,33.2,2.68
230,,,28,40.0,11.2,,0.45,0.56,133.0,42.0,182.0,29.0,2.37
235,,,28,40.0,22.1,,0.45,0.56,146.0,42.0,173.0,30.9,2.41
240,,,7,40.0,18.0,,0.36,0.48,135.0,33.0,60.0,26.1,2.29
245,,,28,40.0,18.0,,0.36,0.48,135.0,33.0,60.0,41.1,3.07
250,,,90,40.0,18.0,,0.36,0.48,135.0,33.0,60.0,53.2,4.12
255,,,180,40.0,18.0,,0.36,0.48,135.0,33.0,60.0,58.8,4.5
260,52.5,8.8,3,20.0,5.4,3.11,0.34,0.34,158.0,42.0,105.0,48.2,3.6
265,52.7,9.0,28,31.5,6.6,2.94,0.42,0.42,185.0,36.0,35.0,35.6,3.04
270,52.7,9.0,3,31.5,6.6,2.94,0.42,0.42,185.0,32.0,25.0,23.6,1.69
275,52.7,9.0,28,31.5,6.6,2.94,0.46,0.46,185.0,36.0,40.0,37.2,3.24
280,43.7,7.5,90,25.0,0.4,2.3,0.3,0.425,153.0,41.0,220.0,80.8,4.82
285,43.7,7.5,7,25.0,2.3,3.1,0.3,0.428,152.0,38.0,210.0,56.9,3.58
290,43.7,7.5,180,25.0,2.3,3.1,0.3,0.428,152.0,38.0,210.0,83.5,5.05
295,43.7,7.5,60,25.0,,3.1,0.3,0.428,152.0,38.0,215.0,82.1,4.78
300,43.7,7.5,3,25.0,6.3,3.1,0.3,0.428,152.0,38.0,202.0,50.7,3.42
305,43.7,7.5,120,25.0,6.3,3.1,0.3,0.428,152.0,38.0,202.0,88.5,5.24
310,43.7,7.5,28,25.0,,3.1,0.3,0.3,152.0,38.0,205.0,78.8,4.61
315,43.7,7.5,365,25.0,,3.1,0.3,0.3,152.0,38.0,205.0,88.1,5.23
320,43.7,7.5,90,25.0,,3.1,0.32,0.457,152.0,39.0,208.0,82.5,4.96
325,55.8,10.8,28,,4.2,2.8,0.24,0.3,135.0,34.0,180.0,93.5,6.7
330,55.8,10.8,7,,4.2,2.8,0.24,0.3,135.0,34.0,180.0,82.4,5.8
335,55.2,8.9,28,25.0,0.8,2.85,0.33,0.47,168.0,38.8,220.0,67.4,4.38
340,55.2,8.9,28,25.0,0.8,2.85,0.33,0.47,155.0,37.0,130.0,69.3,4.5
345,55.2,8.9,28,25.0,0.8,2.85,0.33,0.47,145.0,35.0,115.0,70.8,4.55
350,55.2,8.9,28,25.0,0.8,2.85,0.35,0.47,154.0,38.0,160.0,66.5,3.85
355,55.2,8.9,28,25.0,0.8,2.85,0.3,0.43,120.0,38.0,50.0,78.0,4.35
360,55.2,8.9,28,25.0,0.8,2.85,0.3,0.43,248.0,38.0,50.0,74.0,4.13
365,,,28,20.0,,3.0,0.26,0.4,175.0,37.0,230.0,89.24,4.6
370,52.6,9.4,7,25.0,5.0,3.1,0.55,0.55,180.0,42.0,150.0,25.9,1.34
375,52.6,9.4,28,25.0,10.0,3.1,0.55,0.55,180.0,42.0,180.0,37.9,2.15
380,,,3,20.0,3.0,3.3,0.3,0.38,166.0,48.0,210.0,48.9,3.35
385,,,28,20.0,7.0,3.3,0.3,0.38,166.0,48.0,210.0,80.1,6.01
390,,,28,,,,0.44,0.44,,30.0,,54.0,3.96
395,,,28,80.0,16.8,2.8,0.46,0.46,160.0,32.0,,33.3,2.42
400,,,28,80.0,18.0,2.8,0.53,0.53,130.0,29.0,,24.9,1.84
405,,,28,80.0,20.0,2.8,0.58,0.58,134.0,29.0,,21.3,1.7
410,,,28,20.0,15.0,3.1,0.5,0.5,,,57.0,31.8,2.91
415,,,28,,25.9,3.3,0.5,0.5,,,58.0,26.5,2.36
420,,,28,40.0,25.0,,0.5,0.5,191.0,,,29.8,2.36
425,,,28,40.0,25.0,,0.6,0.6,187.0,,,23.1,1.99
430,,,28,80.0,25.0,,0.5,0.5,154.0,,,32.9,2.49
435,,,28,80.0,25.0,,0.7,0.7,154.0,,,22.5,1.7
440,44.8,7.9,7,31.5,15.0,2.6,0.5,0.5,180.0,42.0,210.0,25.4,1.72
445,47.6,8.5,7,40.0,12.0,3.2,0.55,0.55,175.0,41.0,85.0,30.1,1.7
450,51.7,9.1,28,25.0,6.0,3.2,0.38,0.38,179.0,35.0,180.0,61.3,4.25
455,60.8,8.5,28,80.0,,2.67,0.38,0.38,114.0,26.0,,39.8,2.71
460,47.7,7.9,28,80.0,,2.67,0.62,0.77,120.0,30.0,,18.2,1.8
465,,,28,80.0,21.0,2.54,0.4,0.5,110.0,24.0,56.0,39.6,2.74
470,,,7,,20.0,,0.4,0.4,190.0,30.0,5.0,38.4,2.4
475,,,7,,20.0,,0.7,0.7,190.0,34.0,5.0,16.3,1.08
480,,,7,,20.0,,1.0,1.0,190.0,42.0,5.0,10.5,0.8
485,,,28,,20.0,,0.4,0.4,190.0,30.0,5.0,50.5,3.23
490,,,28,,20.0,,0.7,0.7,190.0,34.0,5.0,27.7,1.62
495,,,28,,20.0,,1.0,1.0,190.0,42.0,5.0,14.2,1.23
500,,,7,80.0,15.0,2.8,0.5,0.66,110.0,30.0,36.0,19.2,1.53
505,,,28,80.0,15.0,2.8,0.5,0.66,110.0,30.0,36.0,28.5,2.91
510,,,90,80.0,15.0,2.8,0.5,0.66,110.0,30.0,36.0,39.4,3.26
515,,,7,120.0,12.1,2.56,0.55,0.92,83.5,26.5,55.0,8.1,0.56
520,,,7,120.0,12.1,2.56,0.45,0.64,98.0,29.5,46.0,16.7,1.21
525,,,28,120.0,12.1,2.56,0.55,0.92,83.5,27.0,55.0,16.4,1.39
530,,,28,80.0,12.1,2.56,0.45,0.64,98.0,30.0,51.0,31.1,2.08
535,,,90,120.0,12.1,2.56,0.45,0.64,98.0,29.5,60.0,36.7,2.45
540,,,7,,11.2,2.44,0.45,0.64,87.0,26.0,47.0,12.9,1.03
545,,,7,40.0,13.0,2.68,0.5,1.11,88.0,36.0,5.0,9.3,0.61
550,,,28,,11.2,2.44,0.45,0.64,87.0,26.0,47.0,22.3,1.56
555,,,28,40.0,13.0,2.68,0.5,1.11,88.0,36.0,5.0,19.9,1.62
560,,,90,40.0,13.0,2.68,0.5,1.0,88.0,36.0,5.0,28.0,2.12
565,,,28,80.0,10.8,2.42,0.45,0.64,98.0,30.0,33.0,28.8,1.71
570,,,90,80.0,12.4,2.57,0.45,0.64,95.0,31.0,40.0,44.0,3.0
575,62.4,8.4,7,40.0,11.9,2.86,0.5,1.11,88.0,,5.0,9.3,0.61
580,62.4,8.4,7,40.0,6.1,2.92,0.5,1.0,102.0,,5.0,9.2,0.72
585,62.4,8.4,7,60.0,11.9,2.86,0.5,1.25,75.0,,5.0,8.3,0.57
590,62.4,8.4,7,80.0,11.9,2.86,0.5,1.11,71.0,,5.0,9.0,0.64
595,62.4,8.4,7,80.0,6.1,2.92,0.5,1.11,82.0,,5.0,6.8,0.55
600,62.4,8.4,28,40.0,11.9,2.86,0.5,1.11,88.0,,5.0,19.9,1.62
605,62.4,8.4,28,40.0,6.1,2.92,0.5,1.0,102.0,,5.0,20.0,1.69
610,62.4,8.4,28,60.0,11.9,2.86,0.5,1.25,75.0,,5.0,16.9,1.09
615,62.4,8.4,28,80.0,11.9,2.86,0.5,1.11,71.0,,5.0,16.2,1.46
620,62.4,8.4,28,80.0,6.1,2.92,0.5,1.11,82.0,,5.0,14.0,1.06
625,62.4,8.4,90,40.0,11.9,2.86,0.5,1.11,88.0,,5.0,25.5,2.1
630,62.4,8.4,90,40.0,6.1,2.92,0.5,1.0,102.0,,5.0,27.8,2.18
635,62.4,8.4,90,60.0,11.9,2.86,0.5,1.25,75.0,,5.0,23.5,1.93
640,62.4,8.4,90,80.0,11.9,2.86,0.5,1.11,71.0,,5.0,21.5,1.9
645,62.4,8.4,90,80.0,6.1,2.92,0.5,1.11,82.0,,5.0,27.7,2.1
650,,,7,80.0,12.0,2.68,0.5,0.67,114.0,30.0,50.0,16.4,1.59
655,,,7,80.0,9.0,2.68,0.5,,111.0,30.0,41.0,16.6,1.54
660,,,28,80.0,15.0,2.68,0.5,0.67,115.0,30.0,40.0,27.3,2.75
665,,,28,80.0,6.0,2.68,0.5,,112.0,30.0,50.0,30.2,2.9
670,,,90,80.0,18.0,2.68,0.5,0.67,117.0,30.0,44.0,37.1,3.21
675,52.9,8.4,7,80.0,15.0,2.8,0.5,0.67,104.0,30.0,44.0,20.4,1.61
680,52.9,8.4,28,80.0,15.0,2.8,0.5,0.67,104.0,30.0,44.0,29.7,3.04
685,52.9,8.4,90,80.0,15.0,2.8,0.5,0.67,104.0,30.0,44.0,40.9,3.43
690,39.42,,7,12.0,19.2,,0.37,0.65,178.75,53.0,,26.56,1.92
695,39.42,,90,12.0,19.2,,0.34,0.55,178.75,53.0,,49.7,3.68
700,48.07,,28,12.0,19.2,,0.31,0.45,180.0,53.0,,63.72,3.86
705,39.42,,7,12.0,19.2,,0.36,0.55,178.75,54.0,135.0,33.42,2.31
710,48.07,,90,12.0,19.2,,0.36,0.55,178.75,54.0,140.0,60.65,4.59
713,48.07,,90,12.0,19.2,,0.32,0.45,180.0,54.0,140.0,73.7,4.76